 V (V)         fr (Hz)         Qc         Qt      a          b          c          d      k      phi
----------------------------------------------------------------------------------------------------
  0.00    5.810569e+09   72850.07   10579.69  -4.35  -7.01e-08  -3.51e-15   2.46e-20   5.26   0.4339
  0.25    5.809179e+09  179069.02   10046.18 -12.88  -3.30e-08  -7.07e-15   5.09e-21  13.80   0.4461
  0.50    5.805236e+09  108934.48   10497.84  -6.99  -1.07e-07  -1.08e-14   3.88e-20   7.90   0.3834
  0.80    5.796941e+09  132360.16    9921.40  -9.58  -1.48e-07  -5.96e-14   6.39e-20  10.52   0.3415
  1.00    5.789015e+09  140240.82   10570.78  -9.15  -1.29e-07  -4.84e-14   5.61e-20  10.06   0.4562
  1.25    5.776540e+09  244250.57   11448.71 -14.40  -2.45e-08  -4.95e-15   3.55e-21  15.25   0.7272
  1.50    5.761165e+09   93475.54   10804.55  -4.80  -1.27e-07  -5.40e-14   5.63e-20   5.73   0.3754
  1.80    5.738543e+09   60159.20   10858.10  -2.40  -4.21e-08  -1.26e-14   1.31e-20   3.35   0.3659
  2.00    5.720612e+09   33923.11    8912.53  -1.33  -1.28e-08  -2.61e-16   3.42e-21   2.29   0.2943
  2.25    5.694878e+09   61246.50    8421.02  -3.42  -2.27e-08   2.36e-17   5.23e-21   4.37   0.3794
  2.50    5.665286e+09   52370.98    7573.44  -2.95  -7.08e-08  -3.02e-14   2.86e-20   3.93   0.2877
  2.80    5.623839e+09   42229.15    6771.16  -2.46  -4.67e-09  -8.17e-16   8.95e-22   3.42   0.3777
  3.00    5.592125e+09   95318.44    6353.80  -6.61  -2.23e-08  -7.09e-15   3.77e-21   7.55   0.4809
  3.25    5.547297e+09   26328.39    6301.85  -0.49  -2.96e-08  -1.32e-15   2.92e-21   1.43   0.3985
  3.50    5.496259e+09   46504.93    5370.12  -1.88  -1.21e-08  -2.83e-15   1.03e-21   2.85   0.4053
  3.80    5.424693e+09    8323.52    4322.25   0.51  -3.08e-09  -5.25e-16   2.82e-22   0.47   0.1640
